#Collected Data-1
#Intensity_unit=counts
#Attenuator_coefficient=1.000000
5.0000 4.0000
5.0200 3.0000
5.0400 4.0000
5.0600 6.0000
5.0800 3.0000
5.1000 4.0000
5.1200 4.0000
5.1400 3.0000
5.1600 1.0000
5.1800 0.0000
5.2000 1.0000
5.2200 2.0000
5.2400 4.0000
5.2600 5.0000
5.2800 3.0000
5.3000 4.0000
5.3200 5.0000
5.3400 3.0000
5.3600 4.0000
5.3800 5.0000
5.4000 4.0000
5.4200 1.0000
5.4400 3.0000
5.4600 5.0000
5.4800 3.0000
5.5000 2.0000
5.5200 3.0000
5.5400 4.0000
5.5600 7.0000
5.5800 5.0000
5.6000 7.0000
5.6200 7.0000
5.6400 5.0000
5.6600 4.0000
5.6800 8.0000
5.7000 5.0000
5.7200 3.0000
5.7400 2.0000
5.7600 3.0000
5.7800 3.0000
5.8000 4.0000
5.8200 6.0000
5.8400 4.0000
5.8600 5.0000
5.8800 4.0000
5.9000 4.0000
5.9200 5.0000
5.9400 4.0000
5.9600 3.0000
5.9800 3.0000
6.0000 7.0000
6.0200 8.0000
6.0400 6.0000
6.0600 4.0000
6.0800 4.0000
6.1000 3.0000
6.1200 3.0000
6.1400 4.0000
6.1600 5.0000
6.1800 4.0000
6.2000 6.0000
6.2200 6.0000
6.2400 4.0000
6.2600 4.0000
6.2800 5.0000
6.3000 5.0000
6.3200 6.0000
6.3400 5.0000
6.3600 5.0000
6.3800 5.0000
6.4000 3.0000
6.4200 2.0000
6.4400 2.0000
6.4600 5.0000
6.4800 4.0000
6.5000 5.0000
6.5200 4.0000
6.5400 4.0000
6.5600 4.0000
6.5800 2.0000
6.6000 2.0000
6.6200 3.0000
6.6400 5.0000
6.6600 7.0000
6.6800 7.0000
6.7000 4.0000
6.7200 6.0000
6.7400 3.0000
6.7600 2.0000
6.7800 5.0000
6.8000 2.0000
6.8200 2.0000
6.8400 4.0000
6.8600 9.0000
6.8800 4.0000
6.9000 4.0000
6.9200 5.0000
6.9400 6.0000
6.9600 4.0000
6.9800 3.0000
7.0000 4.0000
7.0200 5.0000
7.0400 4.0000
7.0600 3.0000
7.0800 1.0000
7.1000 1.0000
7.1200 2.0000
7.1400 3.0000
7.1600 3.0000
7.1800 2.0000
7.2000 4.0000
7.2200 3.0000
7.2400 2.0000
7.2600 3.0000
7.2800 5.0000
7.3000 5.0000
7.3200 2.0000
7.3400 2.0000
7.3600 1.0000
7.3800 2.0000
7.4000 5.0000
7.4200 4.0000
7.4400 2.0000
7.4600 2.0000
7.4800 3.0000
7.5000 2.0000
7.5200 3.0000
7.5400 5.0000
7.5600 5.0000
7.5800 3.0000
7.6000 3.0000
7.6200 4.0000
7.6400 2.0000
7.6600 4.0000
7.6800 5.0000
7.7000 4.0000
7.7200 3.0000
7.7400 0.0000
7.7600 1.0000
7.7800 3.0000
7.8000 4.0000
7.8200 4.0000
7.8400 3.0000
7.8600 3.0000
7.8800 6.0000
7.9000 7.0000
7.9200 8.0000
7.9400 6.0000
7.9600 4.0000
7.9800 5.0000
8.0000 5.0000
8.0200 5.0000
8.0400 4.0000
8.0600 5.0000
8.0800 7.0000
8.1000 3.0000
8.1200 3.0000
8.1400 4.0000
8.1600 4.0000
8.1800 3.0000
8.2000 4.0000
8.2200 4.0000
8.2400 4.0000
8.2600 7.0000
8.2800 5.0000
8.3000 5.0000
8.3200 5.0000
8.3400 4.0000
8.3600 4.0000
8.3800 8.0000
8.4000 5.0000
8.4200 3.0000
8.4400 4.0000
8.4600 6.0000
8.4800 6.0000
8.5000 6.0000
8.5200 4.0000
8.5400 6.0000
8.5600 7.0000
8.5800 7.0000
8.6000 5.0000
8.6200 5.0000
8.6400 4.0000
8.6600 5.0000
8.6800 6.0000
8.7000 6.0000
8.7200 4.0000
8.7400 3.0000
8.7600 2.0000
8.7800 6.0000
8.8000 9.0000
8.8200 10.0000
8.8400 7.0000
8.8600 6.0000
8.8800 5.0000
8.9000 5.0000
8.9200 3.0000
8.9400 3.0000
8.9600 4.0000
8.9800 5.0000
9.0000 6.0000
9.0200 4.0000
9.0400 5.0000
9.0600 7.0000
9.0800 4.0000
9.1000 2.0000
9.1200 5.0000
9.1400 9.0000
9.1600 9.0000
9.1800 8.0000
9.2000 3.0000
9.2200 6.0000
9.2400 10.0000
9.2600 7.0000
9.2800 5.0000
9.3000 5.0000
9.3200 5.0000
9.3400 4.0000
9.3600 8.0000
9.3800 8.0000
9.4000 4.0000
9.4200 4.0000
9.4400 4.0000
9.4600 5.0000
9.4800 5.0000
9.5000 3.0000
9.5200 3.0000
9.5400 5.0000
9.5600 5.0000
9.5800 6.0000
9.6000 8.0000
9.6200 5.0000
9.6400 5.0000
9.6600 9.0000
9.6800 7.0000
9.7000 5.0000
9.7200 5.0000
9.7400 3.0000
9.7600 2.0000
9.7800 4.0000
9.8000 7.0000
9.8200 6.0000
9.8400 4.0000
9.8600 3.0000
9.8800 2.0000
9.9000 4.0000
9.9200 4.0000
9.9400 2.0000
9.9600 4.0000
9.9800 5.0000
10.0000 3.0000
10.0200 8.0000
10.0400 10.0000
10.0600 6.0000
10.0800 8.0000
10.1000 6.0000
10.1200 6.0000
10.1400 9.0000
10.1600 7.0000
10.1800 8.0000
10.2000 6.0000
10.2200 6.0000
10.2400 7.0000
10.2600 6.0000
10.2800 5.0000
10.3000 7.0000
10.3200 9.0000
10.3400 8.0000
10.3600 13.0000
10.3800 14.0000
10.4000 7.0000
10.4200 13.0000
10.4400 12.0000
10.4600 11.0000
10.4800 10.0000
10.5000 11.0000
10.5200 14.0000
10.5400 15.0000
10.5600 13.0000
10.5800 12.0000
10.6000 11.0000
10.6200 15.0000
10.6400 12.0000
10.6600 11.0000
10.6800 16.0000
10.7000 18.0000
10.7200 25.0000
10.7400 22.0000
10.7600 28.0000
10.7800 29.0000
10.8000 23.0000
10.8200 24.0000
10.8400 21.0000
10.8600 27.0000
10.8800 21.0000
10.9000 21.0000
10.9200 25.0000
10.9400 17.0000
10.9600 17.0000
10.9800 27.0000
11.0000 28.0000
11.0200 28.0000
11.0400 34.0000
11.0600 35.0000
11.0800 36.0000
11.1000 57.0000
11.1200 53.0000
11.1400 50.0000
11.1600 44.0000
11.1800 45.0000
11.2000 31.0000
11.2200 19.0000
11.2400 21.0000
11.2600 25.0000
11.2800 21.0000
11.3000 20.0000
11.3200 27.0000
11.3400 32.0000
11.3600 45.0000
11.3800 45.0000
11.4000 47.0000
11.4200 50.0000
11.4400 52.0000
11.4600 57.0000
11.4800 76.0000
11.5000 89.0000
11.5200 103.0000
11.5400 138.0000
11.5600 158.0000
11.5800 182.0000
11.6000 222.0000
11.6200 268.0000
11.6400 318.0000
11.6600 321.0000
11.6800 381.0000
11.7000 405.0000
11.7200 443.0000
11.7400 461.0000
11.7600 438.0000
11.7800 395.0000
11.8000 306.0000
11.8200 201.0000
11.8400 119.0000
11.8600 72.0000
11.8800 39.0000
11.9000 26.0000
11.9200 25.0000
11.9400 17.0000
11.9600 14.0000
11.9800 12.0000
12.0000 17.0000
12.0200 12.0000
12.0400 12.0000
12.0600 6.0000
12.0800 4.0000
12.1000 12.0000
12.1200 8.0000
12.1400 4.0000
12.1600 7.0000
12.1800 7.0000
12.2000 5.0000
12.2200 7.0000
12.2400 9.0000
12.2600 2.0000
12.2800 5.0000
12.3000 5.0000
12.3200 4.0000
12.3400 6.0000
12.3600 9.0000
12.3800 6.0000
12.4000 4.0000
12.4200 7.0000
12.4400 7.0000
12.4600 5.0000
12.4800 5.0000
12.5000 7.0000
12.5200 6.0000
12.5400 6.0000
12.5600 6.0000
12.5800 5.0000
12.6000 6.0000
12.6200 4.0000
12.6400 6.0000
12.6600 6.0000
12.6800 5.0000
12.7000 8.0000
12.7200 8.0000
12.7400 5.0000
12.7600 8.0000
12.7800 6.0000
12.8000 5.0000
12.8200 1.0000
12.8400 3.0000
12.8600 6.0000
12.8800 6.0000
12.9000 5.0000
12.9200 5.0000
12.9400 4.0000
12.9600 2.0000
12.9800 8.0000
13.0000 5.0000
13.0200 4.0000
13.0400 5.0000
13.0600 3.0000
13.0800 4.0000
13.1000 4.0000
13.1200 7.0000
13.1400 6.0000
13.1600 7.0000
13.1800 7.0000
13.2000 9.0000
13.2200 7.0000
13.2400 7.0000
13.2600 9.0000
13.2800 4.0000
13.3000 5.0000
13.3200 3.0000
13.3400 4.0000
13.3600 7.0000
13.3800 5.0000
13.4000 5.0000
13.4200 6.0000
13.4400 3.0000
13.4600 6.0000
13.4800 6.0000
13.5000 9.0000
13.5200 6.0000
13.5400 5.0000
13.5600 8.0000
13.5800 5.0000
13.6000 8.0000
13.6200 6.0000
13.6400 7.0000
13.6600 3.0000
13.6800 7.0000
13.7000 4.0000
13.7200 6.0000
13.7400 4.0000
13.7600 4.0000
13.7800 5.0000
13.8000 4.0000
13.8200 6.0000
13.8400 3.0000
13.8600 7.0000
13.8800 5.0000
13.9000 6.0000
13.9200 4.0000
13.9400 4.0000
13.9600 3.0000
13.9800 1.0000
14.0000 2.0000
14.0200 6.0000
14.0400 5.0000
14.0600 3.0000
14.0800 4.0000
14.1000 2.0000
14.1200 5.0000
14.1400 9.0000
14.1600 8.0000
14.1800 5.0000
14.2000 3.0000
14.2200 4.0000
14.2400 3.0000
14.2600 4.0000
14.2800 5.0000
14.3000 5.0000
14.3200 3.0000
14.3400 5.0000
14.3600 10.0000
14.3800 6.0000
14.4000 6.0000
14.4200 5.0000
14.4400 5.0000
14.4600 3.0000
14.4800 5.0000
14.5000 5.0000
14.5200 5.0000
14.5400 6.0000
14.5600 2.0000
14.5800 1.0000
14.6000 3.0000
14.6200 4.0000
14.6400 7.0000
14.6600 5.0000
14.6800 6.0000
14.7000 6.0000
14.7200 3.0000
14.7400 0.0000
14.7600 3.0000
14.7800 3.0000
14.8000 2.0000
14.8200 6.0000
14.8400 4.0000
14.8600 2.0000
14.8800 7.0000
14.9000 4.0000
14.9200 6.0000
14.9400 5.0000
14.9600 2.0000
14.9800 2.0000
15.0000 1.0000
15.0200 5.0000
15.0400 1.0000
15.0600 5.0000
15.0800 0.0000
15.1000 3.0000
15.1200 8.0000
15.1400 5.0000
15.1600 2.0000
15.1800 3.0000
15.2000 2.0000
15.2200 5.0000
15.2400 6.0000
15.2600 4.0000
15.2800 5.0000
15.3000 6.0000
15.3200 5.0000
15.3400 3.0000
15.3600 5.0000
15.3800 6.0000
15.4000 4.0000
15.4200 3.0000
15.4400 0.0000
15.4600 3.0000
15.4800 4.0000
15.5000 7.0000
15.5200 3.0000
15.5400 6.0000
15.5600 8.0000
15.5800 5.0000
15.6000 4.0000
15.6200 8.0000
15.6400 8.0000
15.6600 5.0000
15.6800 9.0000
15.7000 7.0000
15.7200 9.0000
15.7400 10.0000
15.7600 11.0000
15.7800 12.0000
15.8000 11.0000
15.8200 12.0000
15.8400 13.0000
15.8600 22.0000
15.8800 26.0000
15.9000 26.0000
15.9200 21.0000
15.9400 35.0000
15.9600 33.0000
15.9800 24.0000
16.0000 29.0000
16.0200 30.0000
16.0400 31.0000
16.0600 24.0000
16.0800 21.0000
16.1000 15.0000
16.1200 13.0000
16.1400 7.0000
16.1600 7.0000
16.1800 5.0000
16.2000 5.0000
16.2200 8.0000
16.2400 5.0000
16.2600 5.0000
16.2800 8.0000
16.3000 4.0000
16.3200 5.0000
16.3400 3.0000
16.3600 6.0000
16.3800 6.0000
16.4000 4.0000
16.4200 7.0000
16.4400 7.0000
16.4600 12.0000
16.4800 5.0000
16.5000 8.0000
16.5200 5.0000
16.5400 2.0000
16.5600 5.0000
16.5800 3.0000
16.6000 4.0000
16.6200 7.0000
16.6400 4.0000
16.6600 3.0000
16.6800 3.0000
16.7000 4.0000
16.7200 6.0000
16.7400 3.0000
16.7600 4.0000
16.7800 5.0000
16.8000 6.0000
16.8200 4.0000
16.8400 6.0000
16.8600 2.0000
16.8800 3.0000
16.9000 3.0000
16.9200 7.0000
16.9400 4.0000
16.9600 3.0000
16.9800 4.0000
17.0000 1.0000
17.0200 6.0000
17.0400 6.0000
17.0600 9.0000
17.0800 10.0000
17.1000 3.0000
17.1200 6.0000
17.1400 13.0000
17.1600 7.0000
17.1800 6.0000
17.2000 4.0000
17.2200 5.0000
17.2400 4.0000
17.2600 5.0000
17.2800 4.0000
17.3000 4.0000
17.3200 9.0000
17.3400 10.0000
17.3600 9.0000
17.3800 4.0000
17.4000 4.0000
17.4200 4.0000
17.4400 6.0000
17.4600 8.0000
17.4800 2.0000
17.5000 0.0000
17.5200 6.0000
17.5400 8.0000
17.5600 3.0000
17.5800 4.0000
17.6000 6.0000
17.6200 4.0000
17.6400 4.0000
17.6600 7.0000
17.6800 9.0000
17.7000 6.0000
17.7200 5.0000
17.7400 5.0000
17.7600 6.0000
17.7800 6.0000
17.8000 11.0000
17.8200 7.0000
17.8400 6.0000
17.8600 6.0000
17.8800 5.0000
17.9000 5.0000
17.9200 2.0000
17.9400 1.0000
17.9600 9.0000
17.9800 4.0000
18.0000 2.0000
18.0200 2.0000
18.0400 1.0000
18.0600 0.0000
18.0800 1.0000
18.1000 1.0000
18.1200 4.0000
18.1400 1.0000
18.1600 6.0000
18.1800 4.0000
18.2000 5.0000
18.2200 6.0000
18.2400 3.0000
18.2600 5.0000
18.2800 6.0000
18.3000 7.0000
18.3200 4.0000
18.3400 8.0000
18.3600 5.0000
18.3800 2.0000
18.4000 5.0000
18.4200 1.0000
18.4400 0.0000
18.4600 0.0000
18.4800 3.0000
18.5000 5.0000
18.5200 6.0000
18.5400 3.0000
18.5600 5.0000
18.5800 4.0000
18.6000 3.0000
18.6200 4.0000
18.6400 4.0000
18.6600 6.0000
18.6800 4.0000
18.7000 4.0000
18.7200 9.0000
18.7400 5.0000
18.7600 7.0000
18.7800 3.0000
18.8000 4.0000
18.8200 3.0000
18.8400 4.0000
18.8600 7.0000
18.8800 6.0000
18.9000 3.0000
18.9200 2.0000
18.9400 8.0000
18.9600 1.0000
18.9800 3.0000
19.0000 1.0000
19.0200 3.0000
19.0400 7.0000
19.0600 6.0000
19.0800 5.0000
19.1000 6.0000
19.1200 3.0000
19.1400 5.0000
19.1600 6.0000
19.1800 2.0000
19.2000 6.0000
19.2200 3.0000
19.2400 4.0000
19.2600 6.0000
19.2800 6.0000
19.3000 3.0000
19.3200 4.0000
19.3400 2.0000
19.3600 8.0000
19.3800 4.0000
19.4000 1.0000
19.4200 4.0000
19.4400 5.0000
19.4600 5.0000
19.4800 4.0000
19.5000 1.0000
19.5200 2.0000
19.5400 5.0000
19.5600 8.0000
19.5800 6.0000
19.6000 4.0000
19.6200 6.0000
19.6400 4.0000
19.6600 5.0000
19.6800 7.0000
19.7000 6.0000
19.7200 1.0000
19.7400 5.0000
19.7600 5.0000
19.7800 3.0000
19.8000 3.0000
19.8200 2.0000
19.8400 2.0000
19.8600 3.0000
19.8800 11.0000
19.9000 5.0000
19.9200 5.0000
19.9400 8.0000
19.9600 5.0000
19.9800 9.0000
20.0000 5.0000
20.0200 2.0000
20.0400 1.0000
20.0600 3.0000
20.0800 7.0000
20.1000 1.0000
20.1200 7.0000
20.1400 10.0000
20.1600 13.0000
20.1800 15.0000
20.2000 18.0000
20.2200 15.0000
20.2400 28.0000
20.2600 21.0000
20.2800 29.0000
20.3000 36.0000
20.3200 36.0000
20.3400 30.0000
20.3600 24.0000
20.3800 21.0000
20.4000 19.0000
20.4200 20.0000
20.4400 20.0000
20.4600 5.0000
20.4800 1.0000
20.5000 9.0000
20.5200 4.0000
20.5400 4.0000
20.5600 4.0000
20.5800 6.0000
20.6000 4.0000
20.6200 3.0000
20.6400 7.0000
20.6600 3.0000
20.6800 5.0000
20.7000 8.0000
20.7200 7.0000
20.7400 3.0000
20.7600 2.0000
20.7800 1.0000
20.8000 5.0000
20.8200 5.0000
20.8400 5.0000
20.8600 3.0000
20.8800 7.0000
20.9000 2.0000
20.9200 3.0000
20.9400 3.0000
20.9600 3.0000
20.9800 4.0000
21.0000 5.0000
21.0200 6.0000
21.0400 9.0000
21.0600 6.0000
21.0800 4.0000
21.1000 4.0000
21.1200 6.0000
21.1400 6.0000
21.1600 7.0000
21.1800 5.0000
21.2000 5.0000
21.2200 5.0000
21.2400 8.0000
21.2600 4.0000
21.2800 3.0000
21.3000 5.0000
21.3200 6.0000
21.3400 8.0000
21.3600 7.0000
21.3800 8.0000
21.4000 5.0000
21.4200 8.0000
21.4400 3.0000
21.4600 4.0000
21.4800 6.0000
21.5000 9.0000
21.5200 9.0000
21.5400 9.0000
21.5600 6.0000
21.5800 11.0000
21.6000 8.0000
21.6200 7.0000
21.6400 11.0000
21.6600 8.0000
21.6800 8.0000
21.7000 15.0000
21.7200 10.0000
21.7400 11.0000
21.7600 18.0000
21.7800 11.0000
21.8000 8.0000
21.8200 8.0000
21.8400 15.0000
21.8600 7.0000
21.8800 3.0000
21.9000 6.0000
21.9200 5.0000
21.9400 4.0000
21.9600 6.0000
21.9800 15.0000
22.0000 3.0000
22.0200 8.0000
22.0400 4.0000
22.0600 3.0000
22.0800 3.0000
22.1000 7.0000
22.1200 9.0000
22.1400 3.0000
22.1600 6.0000
22.1800 7.0000
22.2000 6.0000
22.2200 4.0000
22.2400 3.0000
22.2600 7.0000
22.2800 9.0000
22.3000 7.0000
22.3200 5.0000
22.3400 4.0000
22.3600 4.0000
22.3800 2.0000
22.4000 2.0000
22.4200 3.0000
22.4400 6.0000
22.4600 5.0000
22.4800 2.0000
22.5000 5.0000
22.5200 5.0000
22.5400 4.0000
22.5600 4.0000
22.5800 5.0000
22.6000 5.0000
22.6200 2.0000
22.6400 4.0000
22.6600 7.0000
22.6800 4.0000
22.7000 7.0000
22.7200 9.0000
22.7400 7.0000
22.7600 6.0000
22.7800 5.0000
22.8000 6.0000
22.8200 6.0000
22.8400 8.0000
22.8600 9.0000
22.8800 6.0000
22.9000 7.0000
22.9200 6.0000
22.9400 7.0000
22.9600 3.0000
22.9800 4.0000
23.0000 6.0000
23.0200 9.0000
23.0400 8.0000
23.0600 6.0000
23.0800 5.0000
23.1000 6.0000
23.1200 10.0000
23.1400 9.0000
23.1600 8.0000
23.1800 14.0000
23.2000 16.0000
23.2200 10.0000
23.2400 14.0000
23.2600 11.0000
23.2800 10.0000
23.3000 10.0000
23.3200 12.0000
23.3400 8.0000
23.3600 5.0000
23.3800 5.0000
23.4000 6.0000
23.4200 7.0000
23.4400 5.0000
23.4600 6.0000
23.4800 12.0000
23.5000 8.0000
23.5200 11.0000
23.5400 9.0000
23.5600 11.0000
23.5800 6.0000
23.6000 6.0000
23.6200 10.0000
23.6400 7.0000
23.6600 6.0000
23.6800 6.0000
23.7000 7.0000
23.7200 8.0000
23.7400 5.0000
23.7600 4.0000
23.7800 3.0000
23.8000 5.0000
23.8200 4.0000
23.8400 5.0000
23.8600 6.0000
23.8800 3.0000
23.9000 4.0000
23.9200 5.0000
23.9400 3.0000
23.9600 8.0000
23.9800 10.0000
24.0000 9.0000
24.0200 14.0000
24.0400 9.0000
24.0600 7.0000
24.0800 8.0000
24.1000 8.0000
24.1200 14.0000
24.1400 6.0000
24.1600 7.0000
24.1800 8.0000
24.2000 7.0000
24.2200 3.0000
24.2400 6.0000
24.2600 6.0000
24.2800 2.0000
24.3000 9.0000
24.3200 14.0000
24.3400 8.0000
24.3600 10.0000
24.3800 8.0000
24.4000 12.0000
24.4200 13.0000
24.4400 16.0000
24.4600 10.0000
24.4800 9.0000
24.5000 9.0000
24.5200 14.0000
24.5400 17.0000
24.5600 14.0000
24.5800 16.0000
24.6000 12.0000
24.6200 22.0000
24.6400 19.0000
24.6600 25.0000
24.6800 34.0000
24.7000 28.0000
24.7200 33.0000
24.7400 24.0000
24.7600 31.0000
24.7800 26.0000
24.8000 28.0000
24.8200 25.0000
24.8400 24.0000
24.8600 30.0000
24.8800 15.0000
24.9000 18.0000
24.9200 18.0000
24.9400 12.0000
24.9600 11.0000
24.9800 12.0000
25.0000 9.0000
25.0200 8.0000
25.0400 14.0000
25.0600 13.0000
25.0800 10.0000
25.1000 12.0000
25.1200 14.0000
25.1400 12.0000
25.1600 16.0000
25.1800 14.0000
25.2000 17.0000
25.2200 17.0000
25.2400 17.0000
25.2600 27.0000
25.2800 22.0000
25.3000 31.0000
25.3200 25.0000
25.3400 18.0000
25.3600 25.0000
25.3800 18.0000
25.4000 19.0000
25.4200 16.0000
25.4400 16.0000
25.4600 12.0000
25.4800 17.0000
25.5000 13.0000
25.5200 15.0000
25.5400 15.0000
25.5600 14.0000
25.5800 16.0000
25.6000 15.0000
25.6200 22.0000
25.6400 25.0000
25.6600 33.0000
25.6800 30.0000
25.7000 48.0000
25.7200 55.0000
25.7400 78.0000
25.7600 78.0000
25.7800 101.0000
25.8000 112.0000
25.8200 132.0000
25.8400 157.0000
25.8600 180.0000
25.8800 194.0000
25.9000 230.0000
25.9200 235.0000
25.9400 235.0000
25.9600 220.0000
25.9800 205.0000
26.0000 167.0000
26.0200 155.0000
26.0400 119.0000
26.0600 85.0000
26.0800 67.0000
26.1000 56.0000
26.1200 48.0000
26.1400 33.0000
26.1600 25.0000
26.1800 23.0000
26.2000 21.0000
26.2200 20.0000
26.2400 15.0000
26.2600 20.0000
26.2800 15.0000
26.3000 14.0000
26.3200 9.0000
26.3400 12.0000
26.3600 16.0000
26.3800 12.0000
26.4000 8.0000
26.4200 9.0000
26.4400 14.0000
26.4600 9.0000
26.4800 12.0000
26.5000 11.0000
26.5200 13.0000
26.5400 7.0000
26.5600 9.0000
26.5800 8.0000
26.6000 13.0000
26.6200 17.0000
26.6400 14.0000
26.6600 12.0000
26.6800 7.0000
26.7000 16.0000
26.7200 13.0000
26.7400 6.0000
26.7600 9.0000
26.7800 13.0000
26.8000 6.0000
26.8200 5.0000
26.8400 6.0000
26.8600 10.0000
26.8800 8.0000
26.9000 5.0000
26.9200 8.0000
26.9400 11.0000
26.9600 8.0000
26.9800 9.0000
27.0000 8.0000
27.0200 12.0000
27.0400 12.0000
27.0600 10.0000
27.0800 5.0000
27.1000 3.0000
27.1200 7.0000
27.1400 6.0000
27.1600 6.0000
27.1800 6.0000
27.2000 8.0000
27.2200 8.0000
27.2400 7.0000
27.2600 11.0000
27.2800 5.0000
27.3000 9.0000
27.3200 6.0000
27.3400 2.0000
27.3600 7.0000
27.3800 7.0000
27.4000 7.0000
27.4200 9.0000
27.4400 10.0000
27.4600 6.0000
27.4800 8.0000
27.5000 7.0000
27.5200 12.0000
27.5400 10.0000
27.5600 8.0000
27.5800 8.0000
27.6000 8.0000
27.6200 11.0000
27.6400 8.0000
27.6600 8.0000
27.6800 6.0000
27.7000 2.0000
27.7200 6.0000
27.7400 8.0000
27.7600 7.0000
27.7800 7.0000
27.8000 6.0000
27.8200 11.0000
27.8400 14.0000
27.8600 8.0000
27.8800 3.0000
27.9000 7.0000
27.9200 5.0000
27.9400 4.0000
27.9600 10.0000
27.9800 5.0000
28.0000 5.0000
28.0200 5.0000
28.0400 6.0000
28.0600 6.0000
28.0800 10.0000
28.1000 11.0000
28.1200 11.0000
28.1400 8.0000
28.1600 4.0000
28.1800 6.0000
28.2000 9.0000
28.2200 10.0000
28.2400 6.0000
28.2600 8.0000
28.2800 11.0000
28.3000 10.0000
28.3200 5.0000
28.3400 5.0000
28.3600 5.0000
28.3800 11.0000
28.4000 7.0000
28.4200 9.0000
28.4400 10.0000
28.4600 8.0000
28.4800 7.0000
28.5000 9.0000
28.5200 10.0000
28.5400 7.0000
28.5600 5.0000
28.5800 11.0000
28.6000 8.0000
28.6200 8.0000
28.6400 6.0000
28.6600 5.0000
28.6800 8.0000
28.7000 10.0000
28.7200 8.0000
28.7400 9.0000
28.7600 13.0000
28.7800 8.0000
28.8000 9.0000
28.8200 6.0000
28.8400 11.0000
28.8600 7.0000
28.8800 6.0000
28.9000 6.0000
28.9200 12.0000
28.9400 10.0000
28.9600 10.0000
28.9800 9.0000
29.0000 7.0000
29.0200 7.0000
29.0400 10.0000
29.0600 10.0000
29.0800 13.0000
29.1000 8.0000
29.1200 7.0000
29.1400 8.0000
29.1600 6.0000
29.1800 8.0000
29.2000 9.0000
29.2200 6.0000
29.2400 4.0000
29.2600 6.0000
29.2800 6.0000
29.3000 12.0000
29.3200 10.0000
29.3400 13.0000
29.3600 6.0000
29.3800 5.0000
29.4000 7.0000
29.4200 10.0000
29.4400 14.0000
29.4600 11.0000
29.4800 12.0000
29.5000 10.0000
29.5200 9.0000
29.5400 12.0000
29.5600 6.0000
29.5800 7.0000
29.6000 7.0000
29.6200 10.0000
29.6400 19.0000
29.6600 21.0000
29.6800 21.0000
29.7000 21.0000
29.7200 26.0000
29.7400 30.0000
29.7600 45.0000
